Wavelength, Absorbance
380.5,0.05179875088
381.6,0.04970354407
382.8,0.05128625577
383.9,0.05349993004
385.1,0.05674842026
386.2,0.05971623164
387.4,0.05741324741
388.5,0.05386783895
389.7,0.05058091692
390.8,0.04805260684
392,0.04693926128
393.1,0.04442373098
394.3,0.04305250552
395.4,0.04164250283
396.6,0.04101084449
397.7,0.03981645653
398.9,0.03917676241
400,0.03914053454
401.2,0.03948131731
402.3,0.04111696401
403.5,0.04049616642
404.6,0.04001183457
405.8,0.03966901298
406.9,0.03999134744
408.1,0.04084071823
409.2,0.03968186568
410.4,0.03989707858
411.5,0.03919730822
412.7,0.03906215222
413.8,0.03725595638
415,0.03717527486
416.1,0.03666389796
417.3,0.03738853462
418.4,0.03753073898
419.6,0.03722990028
420.7,0.037028743
421.9,0.03644397297
423,0.03576754645
424.2,0.03522650463
425.3,0.03537147775
426.5,0.03623748164
427.6,0.03602519161
428.8,0.03550455994
429.9,0.03503108784
431.1,0.03543745169
432.2,0.0349257217
433.4,0.03440927467
434.5,0.03439810055
435.7,0.03474125445
436.8,0.03557265252
438,0.03532856271
439.1,0.03497941565
440.3,0.0336546234
441.4,0.03371092691
442.6,0.03389110871
443.7,0.03434470148
444.9,0.0340215679
446,0.03412506354
447.2,0.03405111282
448.3,0.03368896257
449.5,0.03260784681
450.6,0.03321731468
451.8,0.03280799981
452.9,0.03290022698
454.1,0.03229122618
455.2,0.03321349286
456.4,0.03371793229
457.5,0.03369674347
458.7,0.0326077471
459.8,0.03217439171
461,0.03031522956
462.1,0.02969064669
463.3,0.02898778337
464.4,0.0295445493
465.6,0.02922228589
466.7,0.0288474814
467.9,0.02842971056
469,0.02856303455
470.2,0.02846772883
471.3,0.02764778168
472.5,0.02749164855
473.6,0.02707772836
474.8,0.02710575327
475.9,0.0260559254
477.1,0.02549395764
478.2,0.02549880079
479.4,0.02503907236
480.5,0.02445864004
481.7,0.02333592102
482.8,0.02297516039
484,0.02290559724
485.1,0.02162697206
486.3,0.02075636903
487.4,0.01905939
488.6,0.01940500395
489.7,0.01861198946
490.9,0.0178280944
492,0.01768725621
493.2,0.01769114287
494.3,0.01716451025
495.5,0.01516251065
496.6,0.01450599181
497.8,0.01388545158
498.9,0.01433108301
500.1,0.01308043622
501.2,0.01224947017
502.4,0.01124432975
503.5,0.01051727973
504.6,0.01018675355
505.8,0.009975987517
506.9,0.01011513519
508.1,0.01015546419
509.2,0.009446580052
510.4,0.009503100804
511.6,0.008867227998
512.6,0.009229402759
513.7,0.008265767498
514.7,0.008021194649
515.8,0.007762384442
516.9,0.007836813554
517.9,0.007570228905
519,0.006432332045
520.1,0.006208304856
521.1,0.005853406721
522.2,0.005653121447
523.3,0.005257358591
524.3,0.004879177225
525.4,0.004523214907
526.5,0.003479274895
527.5,0.003470847002
528.6,0.002979853061
529.7,0.002877237641
530.7,0.001975706323
531.8,0.001922524662
532.9,0.002104680066
533.9,0.001860152694
535,0.00180688131
536.1,0.0008932266439
537.1,0.001232295189
538.2,0.0005663457065
539.2,0.0007152422094
540.3,0.0002978637067
541.4,0.0003474345256
542.4,-8.57E-05
543.5,-0.0003240680079
544.6,-0.0003637106547
545.6,-0.0002995537542
546.7,-0.0002344334853
547.8,-0.0002818634683
548.8,-0.0003167289483
549.9,-0.0003030878342
551,-0.0009297908309
552,-0.001134407036
553.1,-0.001909665678
554.2,-0.001885483161
555.2,-0.002151017141
556.3,-0.001545677413
557.4,-0.001092850389
558.4,-0.0007325730058
559.5,-0.0006932858449
560.6,-0.0007226737015
561.6,-0.0007380324108
562.7,-0.001318087613
563.7,-0.002204088642
564.8,-0.002804650792
565.9,-0.00285648765
566.9,-0.002404986576
568,-0.002409760379
569.1,-0.002713577013
570.1,-0.0027897999
571.2,-0.002740464987
572.3,-0.002843083989
573.3,-0.002711582273
574.4,-0.002855295275
575.5,-0.002661540367
576.5,-0.003137966723
577.6,-0.002766083356
578.7,-0.002532265414
579.7,-0.003008462676
580.8,-0.003624483537
581.9,-0.00416211171
582.9,-0.00348037919
584,-0.003321540247
585.1,-0.003037818481
586.1,-0.002897985564
587.2,-0.002839715843
588.3,-0.002897252717
589.3,-0.002875420649
590.4,-0.002854678025
591.5,-0.002919879406
592.6,-0.003454582955
593.6,-0.003618444107
594.7,-0.003634122178
595.8,-0.003859426457
596.9,-0.003659085454
598,-0.004016000399
599,-0.003999685685
600.1,-0.004273442761
601.2,-0.004702958069
602.3,-0.00507941332
603.3,-0.005503014326
604.4,-0.005197407098
605.5,-0.005199850247
606.6,-0.005387972222
607.6,-0.005988874303
608.7,-0.005938349588
609.8,-0.00572291922
610.9,-0.005165773387
611.9,-0.005168059976
613,-0.004980351704
614.1,-0.005008308839
615.2,-0.00491632753
616.2,-0.005351900808
617.3,-0.005319287912
618.4,-0.005145964857
619.5,-0.004453845677
620.6,-0.00435730221
621.6,-0.004269035136
622.7,-0.004913610226
623.8,-0.005271128572
624.9,-0.005501134383
625.9,-0.00551269769
627,-0.005482327642
628.1,-0.005579937118
629.2,-0.005679870629
630.2,-0.005719862204
631.3,-0.005899830336
632.4,-0.005578620576
633.5,-0.005427225434
634.5,-0.005233025369
635.6,-0.005346565647
636.7,-0.005908191977
637.8,-0.006140158251
638.8,-0.006339991624
639.9,-0.006174311379
641,-0.006379048971
642.1,-0.005965270119
643.1,-0.005419734965
644.2,-0.005111308134
645.3,-0.005273566667
646.4,-0.005507698805
647.5,-0.005585610173
648.5,-0.005807480631
649.6,-0.005259812806
650.7,-0.004836857162
651.8,-0.00422049637
652.8,-0.005063998312
653.9,-0.005137154673
655,-0.005219841729
656.1,-0.004966647201
657.1,-0.004992988127
658.2,-0.005451333414
659.3,-0.005312942927
660.4,-0.004784459176
661.4,-0.004501472336
662.5,-0.004121425075
663.6,-0.004547870234
664.7,-0.004065496738
665.7,-0.003839555475
666.8,-0.00340387647
667.9,-0.003601608635
669,-0.003681043605
670.1,-0.004240142832
671.1,-0.004301116858
672.2,-0.004521070561
673.3,-0.004283265566
674.3,-0.00435156285
675.4,-0.004460881458
676.5,-0.004423256214
677.6,-0.00403065526
678.6,-0.004354877724
679.7,-0.004595390128
680.8,-0.00514948232
681.9,-0.005223133223
682.9,-0.005239910188
684,-0.004964973013
685.1,-0.004639122383
686.2,-0.004661489979
687.2,-0.004533466708
688.3,-0.004493061079
689.4,-0.004142788466
690.4,-0.003956164763
691.5,-0.003722864332
692.6,-0.003717106781
693.7,-0.003790702367
694.7,-0.004134643562
695.8,-0.004642330343
696.9,-0.004995045371
698,-0.004648081977
699,-0.004396560318
700.1,-0.0045265388
701.2,-0.004331501561
702.2,-0.004257533317
703.3,-0.003960215803
704.4,-0.004660784337
705.5,-0.004766106208
706.6,-0.00492287614
707.7,-0.004745815818
708.8,-0.004487427806
709.9,-0.004601470459
711,-0.004681564584
712.1,-0.005081741627
713.2,-0.005111154533
714.3,-0.005027059306
715.4,-0.005222536886
716.5,-0.005166641479
717.6,-0.005373021262
718.8,-0.005693496501
719.9,-0.005790234636
721,-0.005785645845
722.1,-0.005154286776
723.2,-0.005269291092
724.3,-0.005279852769
725.4,-0.00541569939
726.5,-0.005446646437
727.6,-0.005387435321
728.7,-0.005925357348
729.8,-0.005679169644
731,-0.00615060146
732.1,-0.005653055287
733.2,-0.006218949039
734.3,-0.005778627635
735.4,-0.0055914586
736.5,-0.005432626898
737.6,-0.0057426077
738.7,-0.006184261114
739.8,-0.006328601365
740.9,-0.00612365824
742.1,-0.005940064895
743.2,-0.005728998428
744.3,-0.005316040107
745.4,-0.004940907371
746.5,-0.004840152027
747.6,-0.005489613822
748.7,-0.006147238774
749.8,-0.006227855352
750.9,-0.005900319521
752,-0.006226212912
753.1,-0.005988122531
754.3,-0.005920839254
755.4,-0.005351841889
756.5,-0.005435630082
757.6,-0.005279957295
758.7,-0.00531711877
759.8,-0.005836773853
760.9,-0.006373183082
762,-0.006172051137
763.1,-0.005874942219
764.2,-0.005210421325
765.3,-0.005036491616
766.5,-0.004555743532
767.6,-0.00471702323
768.7,-0.005102811066
769.8,-0.005208900257
770.9,-0.004948700336
772,-0.004399417849
773.1,-0.004290452741
774.2,-0.004829696374
775.3,-0.00538883074
776.4,-0.005686682323
777.6,-0.005104756531
778.7,-0.005103780165
779.8,-0.005431800651
780.9,-0.006133756902
782,-0.005505560899
783.1,-0.005448777639
784.2,-0.004844244466
785.3,-0.004957109534
786.4,-0.004348053325
787.5,-0.004420646269
788.6,-0.004355870308
789.8,-0.004596378391
790.9,-0.004717449147
792,-0.005005346084
793.1,-0.004578680031
794.2,-0.004231031357
795.3,-0.004097026875
796.4,-0.004217676726
797.5,-0.003641057781
798.6,-0.003782840847
799.7,-0.003895954009
800.8,-0.004446886183
802,-0.004172196987
803.1,-0.003839905349
804.2,-0.003229243949
805.3,-0.002797055392
806.4,-0.002330408156
807.5,-0.002226667902
808.6,-0.002647521331
809.7,-0.003139909118
810.8,-0.003565147238
811.9,-0.003173071574
813.1,-0.002851318787
814.2,-0.002080803332
815.3,-0.00214136445
816.4,-0.002323674951
817.5,-0.002940744243
818.6,-0.002280865628
819.7,-0.003057524648
820.8,-0.003397787097
821.9,-0.003229438031
823,-0.002699353607
824.1,-0.002854990815
825.3,-0.003322016607
826.4,-0.002764710022
827.5,-0.002318863474
828.6,-0.002478810299
829.7,-0.002963424582
830.8,-0.002372215559
831.9,-0.002533018094
833,-0.002144826724
834,-0.003053748576
835.1,-0.002557993225
836.1,-0.002570122092
837.2,-0.003148224531
838.2,-0.003459163268
839.3,-0.004448900095
840.3,-0.003901529475
841.4,-0.004383980538
842.4,-0.003605655889
843.5,-0.003207546021
844.5,-0.003000256616
845.6,-0.002350331443
846.6,-0.002442727102
847.7,-0.002837396713
848.7,-0.003073430234
849.8,-0.002814085728
850.8,-0.002460416508
851.9,-0.003183626133
852.9,-0.003947750189
854,-0.003899182997
855,-0.003469768934
856.1,-0.002797158502
857.1,-0.003012041678
858.2,-0.002701608066
859.2,-0.002438063203
860.3,-0.002362460578
861.4,-0.002236934294
862.4,-0.00248427672
863.5,-0.001750499873
864.5,-0.002320246246
865.6,-0.002346459574
866.6,-0.002857452603
867.7,-0.00311982875
868.7,-0.003578834927
869.8,-0.003956130072
870.8,-0.003840794256
871.9,-0.003799556428
872.9,-0.004503684644
874,-0.003817314506
875,-0.003584458162
876.1,-0.002911869074
877.1,-0.003940039586
878.2,-0.003959087644
879.2,-0.003891980492
880.3,-0.003332977201
881.3,-0.002752455304
882.4,-0.002007279318
883.4,-0.002185646018
884.5,-0.00272912863
885.5,-0.003201406671
886.6,-0.003307244298
887.6,-0.004201640729
888.7,-0.00444562025
889.7,-0.004602388689
890.8,-0.004706882718
891.9,-0.004576278441
892.9,-0.004873660704
894,-0.004228233237
895,-0.00483534895
896.1,-0.004294222076
897.1,-0.004092819016
898.2,-0.003785356502
899.2,-0.003047861754
900.3,-0.00249696863
901.3,-0.001893888703
902.4,-0.00154338693
903.4,-0.001374133249
904.5,0.0002911473683
905.5,0.001578566531
906.6,0.002768727523
907.6,0.003027632229
908.7,0.002439310017
909.7,0.002664452118
910.8,0.003262238079
911.8,0.004520176548
912.9,0.006412599797
913.9,0.007213033907
915,0.008340162725
916,0.008533388714
917.1,0.008646080027
918.1,0.009462070287
919.2,0.009446137022
920.3,0.01114358431
921.3,0.01119740806
922.4,0.01138184032
923.4,0.01166037001
924.5,0.01170803579
925.5,0.01303268316
926.6,0.0124304021
927.6,0.01215565337
928.7,0.01086164986
929.7,0.01000558015
930.8,0.009772418721
931.8,0.009488066245
932.9,0.009515428286
933.9,0.00842683528
935,0.008430082229
936,0.007315439717
937.1,0.007488186546
938.1,0.006451302494
939.2,0.005864720797
940.3,0.003951939158
941.3,0.002702284253
942.4,0.002201106139
943.4,0.0017441843
944.5,0.00168114276
945.5,0.00087585213
946.6,0.0009386697156
947.6,0.0002426601628
948.7,-0.0006158940321
949.7,-0.001107001306