Wavelength, Absorbance
380.5,-0.008236167598
381.6,-0.003593280597
382.8,0.003842697447
383.9,0.00975954678
385.1,0.003560187311
386.2,-0.002544234402
387.4,-0.006109324802
388.5,-0.005540441364
389.7,-0.003867356515
390.8,-0.001172114367
392,0.002046137997
393.1,0.004415993328
394.3,0.009034122428
395.4,0.012946871
396.6,0.01674814444
397.7,0.02246022421
398.9,0.02805053797
400,0.03331127276
401.2,0.03393967782
402.3,0.03368323443
403.5,0.03227873428
404.6,0.03132608597
405.8,0.03114428562
406.9,0.03136146783
408.1,0.03199159989
409.2,0.03230176069
410.4,0.03252409124
411.5,0.03269661666
412.7,0.03283711076
413.8,0.03296441953
415,0.03330661322
416.1,0.0337465428
417.3,0.03373217318
418.4,0.03382194862
419.6,0.03311160853
420.7,0.03250651682
421.9,0.03167913807
423,0.0322199122
424.2,0.0325594492
425.3,0.03179819906
426.5,0.03206689983
427.6,0.03203817829
428.8,0.0338341637
429.9,0.03337553535
431.1,0.03325281916
432.2,0.03225304526
433.4,0.0323545291
434.5,0.03269952516
435.7,0.03238584839
436.8,0.03094553533
438,0.02997765091
439.1,0.02937846788
440.3,0.02905816278
441.4,0.02789178808
442.6,0.02653740589
443.7,0.02509369143
444.9,0.02317521458
446,0.02076515868
447.2,0.01906638787
448.3,0.01768304301
449.5,0.01664100077
450.6,0.01520990737
451.8,0.01429292981
452.9,0.01339069752
454.1,0.0121788869
455.2,0.01158991317
456.4,0.01118452256
457.5,0.01112909176
458.7,0.01079024149
459.8,0.01045073235
461,0.009705951266
462.1,0.009202311537
463.3,0.009406428571
464.4,0.009945787876
465.6,0.010187441
466.7,0.01025549555
467.9,0.00989658134
469,0.008938848556
470.2,0.007397160256
471.3,0.006820375505
472.5,0.008253986009
473.6,0.009920965391
474.8,0.0105362013
475.9,0.008791889644
477.1,0.007418778012
478.2,0.006661364062
479.4,0.006251522589
480.5,0.006020428747
481.7,0.005662524911
482.8,0.005023393691
484,0.004005742643
485.1,0.003290208931
486.3,0.002929382096
487.4,0.002988390513
488.6,0.001932320641
489.7,0.001513544417
490.9,0.0006689642554
492,0.0009944300831
493.2,0.0008222271519
494.3,0.0006855264473
495.5,0.0007301606363
496.6,0.000371941649
497.8,-0.001032253514
498.9,-0.002274374014
500.1,-0.001582712498
501.2,-0.0003458447182
502.4,-0.000144574691
503.5,-0.001472709617
504.6,-0.0008086314564
505.8,-0.0005641471022
506.9,0.0003100481019
508.1,0.0009964072171
509.2,0.003693971459
510.4,0.005411572982
511.6,0.00546204151
512.6,0.004089780237
513.7,0.004200167328
514.7,0.004111460997
515.8,0.005228192156
516.9,0.005961805789
517.9,0.006536143451
519,0.006432404987
520.1,0.005624698226
521.1,0.005487545706
522.2,0.005944588909
523.3,0.006593661379
524.3,0.006594642164
525.4,0.005614291021
526.5,0.004056121156
527.5,0.003439747229
528.6,0.002551849112
529.7,0.002081073136
530.7,0.001342486414
531.8,0.001237250547
532.9,0.0003255372312
533.9,0.0003587728266
535,-0.000278529481
536.1,0.0001085775157
537.1,-0.0009527656891
538.2,-0.001818624699
539.2,-0.002820605414
540.3,-0.004053684672
541.4,-0.004206804697
542.4,-0.004829648521
543.5,-0.004594053622
544.6,-0.004610205939
545.6,-0.004548472779
546.7,-0.004756254391
547.8,-0.006011598248
548.8,-0.007322374869
549.9,-0.008403346112
551,-0.008128471366
552,-0.007567980234
553.1,-0.00775102649
554.2,-0.007759756135
555.2,-0.007987921115
556.3,-0.008033409951
557.4,-0.008911358941
558.4,-0.008870780598
559.5,-0.008755916852
560.6,-0.008748047745
561.6,-0.00891919462
562.7,-0.00891359843
563.7,-0.009329407272
564.8,-0.009310299567
565.9,-0.008911570647
566.9,-0.008007212511
568,-0.00872286563
569.1,-0.00942431289
570.1,-0.009684532075
571.2,-0.009573649888
572.3,-0.008833931843
573.3,-0.008996368538
574.4,-0.008682950095
575.5,-0.008145867937
576.5,-0.007884826842
577.6,-0.00775278502
578.7,-0.008067716008
579.7,-0.007903464553
580.8,-0.007822222395
581.9,-0.00864951268
582.9,-0.008618772763
584,-0.008848336045
585.1,-0.008698860366
586.1,-0.008833541838
587.2,-0.008426461822
588.3,-0.007660329109
589.3,-0.007572763211
590.4,-0.007520853689
591.5,-0.007317903993
592.6,-0.007454175262
593.6,-0.006939774278
594.7,-0.007583900968
595.8,-0.006927834617
596.9,-0.007476243547
598,-0.007378680493
599,-0.007683046273
600.1,-0.007457921943
601.2,-0.00706399242
602.3,-0.007062855285
603.3,-0.006731873135
604.4,-0.006402919417
605.5,-0.005670010636
606.6,-0.005150501487
607.6,-0.004708434023
608.7,-0.004131225367
609.8,-0.00359130786
610.9,-0.00312458222
611.9,-0.003569945022
613,-0.004431458757
614.1,-0.005023171911
615.2,-0.004644094581
616.2,-0.00422894422
617.3,-0.004766822315
618.4,-0.005181715831
619.5,-0.004966013262
620.6,-0.003677602957
621.6,-0.004092169306
622.7,-0.004278206013
623.8,-0.005713192669
624.9,-0.00540041609
625.9,-0.004950249849
627,-0.004729944853
628.1,-0.00512196239
629.2,-0.006115748956
630.2,-0.005948181335
631.3,-0.00523285285
632.4,-0.004641697382
633.5,-0.003976481216
634.5,-0.003325975392
635.6,-0.002689009439
636.7,-0.002269213066
637.8,-0.002355306146
638.8,-0.001922674831
639.9,-0.001348456223
641,-0.001242242989
642.1,-0.001208314675
643.1,-0.000852993864
644.2,-0.0001946759715
645.3,0.0001700102811
646.4,0.0007755708273
647.5,0.002298110794
648.5,0.003454697267
649.6,0.004680308473
650.7,0.005455116304
651.8,0.00662781995
652.8,0.00747783934
653.9,0.009054527803
655,0.01078078456
656.1,0.01250925379
657.1,0.01385796671
658.2,0.01456849185
659.3,0.01630412571
660.4,0.01616893924
661.4,0.01707192097
662.5,0.01623341038
663.6,0.01666231486
664.7,0.01576429859
665.7,0.01481068392
666.8,0.01342512138
667.9,0.01203314668
669,0.01063272332
670.1,0.008992798381
671.1,0.007245756003
672.2,0.005589441971
673.3,0.003092347153
674.3,0.001838769155
675.4,0.0005514179672
676.5,-0.0003063501827
677.6,-0.002042049122
678.6,-0.003471179617
679.7,-0.004807728677
680.8,-0.004949470977
681.9,-0.005515965405
682.9,-0.006107527562
684,-0.006872143033
685.1,-0.008068019875
686.2,-0.007800046882
687.2,-0.008656470355
688.3,-0.008931245744
689.4,-0.009607193775
690.4,-0.009290027534
691.5,-0.008563159056
692.6,-0.008732991147
693.7,-0.009720748422
694.7,-0.01011073614
695.8,-0.009755845202
696.9,-0.009591095434
698,-0.009858360501
699,-0.009782974977
700.1,-0.009642135122
701.2,-0.00925877478
702.2,-0.009759921698
703.3,-0.009573051617
704.4,-0.00988319967
705.5,-0.009600782881
706.6,-0.009432419734
707.7,-0.009732898573
708.8,-0.009696365192
709.9,-0.009322204658
711,-0.008634043414
712.1,-0.009167667656
713.2,-0.009978701414
714.3,-0.009942232209
715.4,-0.009267610115
716.5,-0.009413255494
717.6,-0.009710876723
718.8,-0.009704923368
719.9,-0.009172812199
721,-0.009271430843
722.1,-0.009274267403
723.2,-0.009615751767
724.3,-0.0102849198
725.4,-0.01142128632
726.5,-0.01151867433
727.6,-0.01085380991
728.7,-0.01070126912
729.8,-0.01061466021
731,-0.0110731399
732.1,-0.01013450702
733.2,-0.01011873322
734.3,-0.009416415189
735.4,-0.01030750071
736.5,-0.009844929861
737.6,-0.01037868667
738.7,-0.0104785669
739.8,-0.01142254554
740.9,-0.01150945144
742.1,-0.01117337353
743.2,-0.01079100279
744.3,-0.01074999686
745.4,-0.01155796159
746.5,-0.01178858557
747.6,-0.01163935738
748.7,-0.01097664201
749.8,-0.01081704369
750.9,-0.01178768197
752,-0.01267813639
753.1,-0.01337258342
754.3,-0.01322243898
755.4,-0.01235891549
756.5,-0.01099350808
757.6,-0.01050413409
758.7,-0.01035969462
759.8,-0.01154562604
760.9,-0.01171508344
762,-0.01096956711
763.1,-0.01079361934
764.2,-0.01116122134
765.3,-0.01240520598
766.5,-0.01268887949
767.6,-0.01283189304
768.7,-0.01320213201
769.8,-0.01302606542
770.9,-0.01282286889
772,-0.01134787349
773.1,-0.01067956696
774.2,-0.0105602089
775.3,-0.01115224148
776.4,-0.01094901853
777.6,-0.01082573939
778.7,-0.01116331421
779.8,-0.01130052849
780.9,-0.01120754567
782,-0.01076197772
783.1,-0.01162167671
784.2,-0.01218433141
785.3,-0.01250486068
786.4,-0.01171331815
787.5,-0.01208519496
788.6,-0.01286586188
789.8,-0.01388377673
790.9,-0.01307864676
792,-0.01189346636
793.1,-0.01151772267
794.2,-0.01259988969
795.3,-0.0133019871
796.4,-0.01297710634
797.5,-0.01173474704
798.6,-0.01066458484
799.7,-0.01045416698
800.8,-0.01066281208
802,-0.01169472881
803.1,-0.01167508673
804.2,-0.0115134611
805.3,-0.01039982854
806.4,-0.01075590762
807.5,-0.01009737368
808.6,-0.01073264972
809.7,-0.01106707722
810.8,-0.01162756778
811.9,-0.01121458489
813.1,-0.0117658783
814.2,-0.01203676542
815.3,-0.01229213322
816.4,-0.01100722764
817.5,-0.01060588881
818.6,-0.01176050744
819.7,-0.01177133268
820.8,-0.01177897626
821.9,-0.01115195231
823,-0.01130802741
824.1,-0.01191469003
825.3,-0.01128674334
826.4,-0.01157230979
827.5,-0.01096234487
828.6,-0.01144874703
829.7,-0.01147966944
830.8,-0.01174100021
831.9,-0.01058685308
833,-0.01043348252
834,-0.009924977047
835.1,-0.01125505319
836.1,-0.01139576594
837.2,-0.0116966758
838.2,-0.01051243797
839.3,-0.009941158971
840.3,-0.009714381563
841.4,-0.01068315315
842.4,-0.01192530479
843.5,-0.01329726465
844.5,-0.01204122436
845.6,-0.0105147535
846.6,-0.009024415975
847.7,-0.01051681479
848.7,-0.01081596988
849.8,-0.01176180837
850.8,-0.01153169894
851.9,-0.01111245134
852.9,-0.01080683125
854,-0.01049062295
855,-0.01141283964
856.1,-0.010907225
857.1,-0.01037280123
858.2,-0.0104736268
859.2,-0.01109792478
860.3,-0.0119965273
861.4,-0.01127474168
862.4,-0.01110689553
863.5,-0.01089864837
864.5,-0.01062809827
865.6,-0.009274696808
866.6,-0.007573592531
867.7,-0.007930298615
868.7,-0.008011623475
869.8,-0.008182137728
870.8,-0.007862961437
871.9,-0.008429449205
872.9,-0.009933949099
874,-0.009761967921
875,-0.009458552922
876.1,-0.008072620562
877.1,-0.007940810742
878.2,-0.008848844921
879.2,-0.008848648049
880.3,-0.01004977769
881.3,-0.008697776995
882.4,-0.009181343663
883.4,-0.009012843248
884.5,-0.01033295302
885.5,-0.01141044623
886.6,-0.01047959047
887.6,-0.01017503669
888.7,-0.01012095979
889.7,-0.01043890009
890.8,-0.01067684135
891.9,-0.01020554356
892.9,-0.01098293601
894,-0.01079546093
895,-0.01059277792
896.1,-0.01045735133
897.1,-0.01001073635
898.2,-0.009707643063
899.2,-0.009573240989
900.3,-0.008858756851
901.3,-0.007829943267
902.4,-0.007425463041
903.4,-0.007104422443
904.5,-0.008114644135
905.5,-0.007421638115
906.6,-0.008337967911
907.6,-0.007989243957
908.7,-0.00753993722
909.7,-0.006449063631
910.8,-0.005460726537
911.8,-0.004772630016
912.9,-0.003238643508
913.9,-0.002066157335
915,-0.001633738891
916,-0.001093714722
917.1,-0.0003659028997
918.1,0.0009305210189
919.2,0.001486728213
920.3,0.001773406646
921.3,0.002341577083
922.4,0.003435532429
923.4,0.004535114406
924.5,0.004933630137
925.5,0.004277573518
926.6,0.00444550499
927.6,0.005128945845
928.7,0.00765874408
929.7,0.008324964896
930.8,0.008866312671
931.8,0.006993538539
932.9,0.007650520584
933.9,0.00777565721
935,0.009555279312
936,0.01049590016
937.1,0.01162538911
938.1,0.01262105724
939.2,0.01336053034
940.3,0.01387799763
941.3,0.01349342968
942.4,0.01316646729
943.4,0.01449610012
944.5,0.0155964119
945.5,0.01627094098
946.6,0.0160537484
947.6,0.01664907918
948.7,0.01841792674
949.7,0.01933104535