Wavelength, Absorbance
380.5,0.05505325643
381.6,0.05695081534
382.8,0.05758104401
383.9,0.05967417509
385.1,0.05891799323
386.2,0.05932396677
387.4,0.05854077592
388.5,0.06006160752
389.7,0.06365202913
390.8,0.0664116146
392,0.06809135198
393.1,0.06851789503
394.3,0.06879095088
395.4,0.06788126851
396.6,0.06700363951
397.7,0.06604964509
398.9,0.06722813296
400,0.06725529143
401.2,0.06772800391
402.3,0.06807166946
403.5,0.06951204775
404.6,0.07118565533
405.8,0.07291697794
406.9,0.07391401265
408.1,0.0745243799
409.2,0.07473560666
410.4,0.07564532385
411.5,0.07715352819
412.7,0.07714234252
413.8,0.07680648378
415,0.07607839362
416.1,0.07598123936
417.3,0.07570059232
418.4,0.07563671094
419.6,0.07494336946
420.7,0.07509768976
421.9,0.07435082819
423,0.07478447212
424.2,0.07375769303
425.3,0.07321368052
426.5,0.07266557164
427.6,0.07168787722
428.8,0.07056049005
429.9,0.06819029581
431.1,0.06752911216
432.2,0.06660742215
433.4,0.06628418787
434.5,0.06476706736
435.7,0.06449915381
436.8,0.06420140768
438,0.06374483549
439.1,0.06199276132
440.3,0.06018505664
441.4,0.05918102306
442.6,0.05816752864
443.7,0.05725612417
444.9,0.05566528586
446,0.05472536195
447.2,0.05337154716
448.3,0.05179392708
449.5,0.05045646529
450.6,0.04963119068
451.8,0.04868340788
452.9,0.04694395577
454.1,0.04563539658
455.2,0.0447257303
456.4,0.04403850552
457.5,0.04255366416
458.7,0.04237786662
459.8,0.04236015162
461,0.04123162523
462.1,0.04029404276
463.3,0.03895999553
464.4,0.03883602497
465.6,0.03844997156
466.7,0.03737791536
467.9,0.03702681112
469,0.03546646105
470.2,0.03422382311
471.3,0.03246572385
472.5,0.0323510289
473.6,0.03260013696
474.8,0.03266716976
475.9,0.0308939377
477.1,0.02934226977
478.2,0.0270225167
479.4,0.02609704795
480.5,0.02409153367
481.7,0.02329144609
482.8,0.02134720405
484,0.02076551508
485.1,0.01990678314
486.3,0.0187674994
487.4,0.01712170932
488.6,0.01524660222
489.7,0.01293155927
490.9,0.01155563091
492,0.01063277205
493.2,0.01080891969
494.3,0.009490559364
495.5,0.008870214651
496.6,0.00838641921
497.8,0.007321374431
498.9,0.005691581954
500.1,0.004770863582
501.2,0.005463384921
502.4,0.005133808751
503.5,0.00450326828
504.6,0.004242872426
505.8,0.004269883943
506.9,0.004192039232
508.1,0.003350975544
509.2,0.003698657178
510.4,0.00324162189
511.6,0.00327833646
512.6,0.002813445399
513.7,0.002889885328
514.7,0.002931191183
515.8,0.002893344929
516.9,0.00288505741
517.9,0.002615786184
519,0.002278666181
520.1,0.002037779331
521.1,0.0005411182102
522.2,0.0003520249122
523.3,0.0004330920639
524.3,0.00140328293
525.4,0.001118623898
526.5,0.0003332055347
527.5,-8.24E-05
528.6,-0.0005239059903
529.7,-0.0003456619151
530.7,-0.001357147145
531.8,-0.00140661587
532.9,-0.002264242873
533.9,-0.002228792757
535,-0.002091429602
536.1,-0.001791700528
537.1,-0.001775479158
538.2,-0.002635854176
539.2,-0.002978900013
540.3,-0.003176514587
541.4,-0.003054147239
542.4,-0.003563623505
543.5,-0.004574094866
544.6,-0.005868406882
545.6,-0.006645470675
546.7,-0.00637051915
547.8,-0.006571882467
548.8,-0.006897465511
549.9,-0.007068013852
551,-0.007042175049
552,-0.007229366683
553.1,-0.007198268992
554.2,-0.007217050537
555.2,-0.007617783525
556.3,-0.007678447273
557.4,-0.007690857986
558.4,-0.007947884816
559.5,-0.007943011192
560.6,-0.008072995634
561.6,-0.008015798832
562.7,-0.008453147712
563.7,-0.00900574791
564.8,-0.008273953257
565.9,-0.00892961773
566.9,-0.008252345792
568,-0.008583422991
569.1,-0.008144769174
570.1,-0.008683543423
571.2,-0.008615205222
572.3,-0.008353212929
573.3,-0.008059456424
574.4,-0.008597065992
575.5,-0.008679072788
576.5,-0.008797664012
577.6,-0.00827822886
578.7,-0.008490034964
579.7,-0.00889403347
580.8,-0.009235903767
581.9,-0.009395613947
582.9,-0.009608638242
584,-0.009833778487
585.1,-0.0102191896
586.1,-0.009838364279
587.2,-0.009367006847
588.3,-0.008913075876
589.3,-0.008572980224
590.4,-0.008816042877
591.5,-0.008672597628
592.6,-0.008473890496
593.6,-0.008371276981
594.7,-0.007994069538
595.8,-0.008213744572
596.9,-0.007961096845
598,-0.0086008852
599,-0.008509607564
600.1,-0.008275645819
601.2,-0.008001844472
602.3,-0.007555452894
603.3,-0.00791182361
604.4,-0.00816855184
605.5,-0.008795715439
606.6,-0.008685126188
607.6,-0.007700919693
608.7,-0.007298190983
609.8,-0.007207723718
610.9,-0.007059086155
611.9,-0.006761228941
613,-0.006370905756
614.1,-0.006978988998
615.2,-0.007399188097
616.2,-0.008051220749
617.3,-0.007725936042
618.4,-0.007342183887
619.5,-0.006716575603
620.6,-0.007094815396
621.6,-0.007610592451
622.7,-0.008169107893
623.8,-0.007994033703
624.9,-0.007819715897
625.9,-0.007503602291
627,-0.007036064402
628.1,-0.007009078917
629.2,-0.007149637937
630.2,-0.007677083888
631.3,-0.007466207159
632.4,-0.007544428442
633.5,-0.007582663277
634.5,-0.007468545311
635.6,-0.006649289971
636.7,-0.006475354172
637.8,-0.006550488136
638.8,-0.006482679964
639.9,-0.006070191409
641,-0.005171532744
642.1,-0.004805675128
643.1,-0.004389733899
644.2,-0.003730833162
645.3,-0.003014990525
646.4,-0.001785097171
647.5,-0.001400330479
648.5,-0.000956943084
649.6,-0.0008293521959
650.7,-0.000291685242
651.8,-0.0001819281304
652.8,0.0006895047668
653.9,0.001913988569
655,0.003066149388
656.1,0.003661978229
657.1,0.004208726608
658.2,0.005517393511
659.3,0.006272200685
660.4,0.006449902907
661.4,0.00667187527
662.5,0.007369618765
663.6,0.0078046648
664.7,0.007532405832
665.7,0.007348880671
666.8,0.006642826366
667.9,0.00573642614
669,0.004192690008
670.1,0.002782473742
671.1,0.002032481204
672.2,0.001348647135
673.3,0.0008697189677
674.3,-3.95E-06
675.4,-0.001619786353
676.5,-0.002500306978
677.6,-0.003649733138
678.6,-0.004282982711
679.7,-0.005269476769
680.8,-0.005666011597
681.9,-0.006168292011
682.9,-0.006442413768
684,-0.007182456099
685.1,-0.00756585604
686.2,-0.008535897
687.2,-0.008694303913
688.3,-0.008761953283
689.4,-0.00852380457
690.4,-0.008242784896
691.5,-0.007973012518
692.6,-0.008030094165
693.7,-0.007985426012
694.7,-0.007963489051
695.8,-0.007307974446
696.9,-0.007031892963
698,-0.00673502593
699,-0.007222151569
700.1,-0.007397891628
701.2,-0.007940524882
702.2,-0.007912058227
703.3,-0.00807863959
704.4,-0.007083244409
705.5,-0.006496344873
706.6,-0.006029818118
707.7,-0.006383826423
708.8,-0.006706315613
709.9,-0.007501455857
711,-0.008008135749
712.1,-0.008095690055
713.2,-0.00776716225
714.3,-0.008228145789
715.4,-0.008477676367
716.5,-0.008884099363
717.6,-0.008594249288
718.8,-0.008340758143
719.9,-0.008179564642
721,-0.007903648308
722.1,-0.008209712091
723.2,-0.008229289861
724.3,-0.008285643273
725.4,-0.008003350469
726.5,-0.007987233006
727.6,-0.008128255686
728.7,-0.008093507923
729.8,-0.007533820664
731,-0.007351566324
732.1,-0.006834964216
733.2,-0.007269746128
734.3,-0.006763014145
735.4,-0.007280356704
736.5,-0.007745882194
737.6,-0.007954622877
738.7,-0.008556661718
739.8,-0.008160248214
740.9,-0.009109922123
742.1,-0.008997765825
743.2,-0.009270453753
744.3,-0.008757278967
745.4,-0.008585437267
746.5,-0.008804234237
747.6,-0.008666055755
748.7,-0.009177862078
749.8,-0.009067388143
750.9,-0.009550498272
752,-0.00983328566
753.1,-0.01033984436
754.3,-0.01083089134
755.4,-0.01059596686
756.5,-0.01099066384
757.6,-0.01115405584
758.7,-0.01109975309
759.8,-0.01086566543
760.9,-0.01097565189
762,-0.01127562526
763.1,-0.0107058589
764.2,-0.01061037146
765.3,-0.01086357089
766.5,-0.0113448282
767.6,-0.01171431315
768.7,-0.01118252748
769.8,-0.01088775307
770.9,-0.01040510128
772,-0.01086149612
773.1,-0.01104469122
774.2,-0.01165147063
775.3,-0.01163791011
776.4,-0.01222091731
777.6,-0.01194515284
778.7,-0.01236276844
779.8,-0.01169171043
780.9,-0.01121716815
782,-0.0110475049
783.1,-0.01165788876
784.2,-0.0119117451
785.3,-0.01161170067
786.4,-0.01147830307
787.5,-0.01161114973
788.6,-0.01155057839
789.8,-0.01228148775
790.9,-0.01263882225
792,-0.01396797763
793.1,-0.01403261622
794.2,-0.01478258725
795.3,-0.01515367135
796.4,-0.01577211069
797.5,-0.01573600549
798.6,-0.01498062355
799.7,-0.01482764696
800.8,-0.0145517471
802,-0.01490915339
803.1,-0.01463289483
804.2,-0.01398639505
805.3,-0.01320810252
806.4,-0.01247554134
807.5,-0.01311596451
808.6,-0.01356469444
809.7,-0.0136842283
810.8,-0.01382672862
811.9,-0.01405968826
813.1,-0.01440593128
814.2,-0.01405950058
815.3,-0.0133756026
816.4,-0.01315702644
817.5,-0.01269642158
818.6,-0.01235229754
819.7,-0.01211641145
820.8,-0.01231409218
821.9,-0.0126190473
823,-0.01223237613
824.1,-0.01220047258
825.3,-0.01225056436
826.4,-0.01240591361
827.5,-0.01202904073
828.6,-0.01213544715
829.7,-0.01228088186
830.8,-0.01286279579
831.9,-0.01238970029
833,-0.01270572551
834,-0.01314342667
835.1,-0.01326839862
836.1,-0.01342700984
837.2,-0.01347068854
838.2,-0.01372990926
839.3,-0.01338160653
840.3,-0.01341389352
841.4,-0.01358627765
842.4,-0.01384648101
843.5,-0.01327579229
844.5,-0.01283662307
845.6,-0.01283000684
846.6,-0.01266070224
847.7,-0.01338649257
848.7,-0.01301030778
849.8,-0.01257183337
850.8,-0.01159308195
851.9,-0.01125231205
852.9,-0.01055722466
854,-0.01042721506
855,-0.009296664696
856.1,-0.009626555753
857.1,-0.008908871464
858.2,-0.009358810814
859.2,-0.009075505091
860.3,-0.009483077884
861.4,-0.009977095083
862.4,-0.0102485155
863.5,-0.0100043505
864.5,-0.009863223846
865.6,-0.009553797794
866.6,-0.009655919158
867.7,-0.009645039469
868.7,-0.009544675897
869.8,-0.009484197358
870.8,-0.009510772373
871.9,-0.009757587072
872.9,-0.01021869972
874,-0.009745689786
875,-0.008849692812
876.1,-0.008260136056
877.1,-0.007800759275
878.2,-0.008786496377
879.2,-0.009227837325
880.3,-0.01007959824
881.3,-0.01031806646
882.4,-0.01094380772
883.4,-0.01110792062
884.5,-0.01105338711
885.5,-0.009625846892
886.6,-0.008562613524
887.6,-0.00789421444
888.7,-0.008115948735
889.7,-0.007916448721
890.8,-0.007776267271
891.9,-0.007410788476
892.9,-0.00766774135
894,-0.007281428962
895,-0.007277176323
896.1,-0.008468742475
897.1,-0.009322286146
898.2,-0.009289138246
899.2,-0.009045775717
900.3,-0.009418324003
901.3,-0.01025958156
902.4,-0.009793436128
903.4,-0.009062585958
904.5,-0.008472467937
905.5,-0.007533893514
906.6,-0.008069867836
907.6,-0.00823732139
908.7,-0.009114794726
909.7,-0.009579665236
910.8,-0.008765950886
911.8,-0.007719615831
912.9,-0.006614885051
913.9,-0.006037495287
915,-0.007173250827
916,-0.00655725759
917.1,-0.007122069038
918.1,-0.006182398305
919.2,-0.006005336927
920.3,-0.005342202284
921.3,-0.004921275751
922.4,-0.005222691242
923.4,-0.004684904226
924.5,-0.004152435342
925.5,-0.002615299168
926.6,-0.002622596291
927.6,-0.001738493208
928.7,-0.001656984519
929.7,-0.0001758765542
930.8,0.0003244360785
931.8,0.002124571071
932.9,0.001945162439
933.9,0.002300277483
935,0.002511075641
936,0.003808511533
937.1,0.005761896199
938.1,0.006713146059
939.2,0.007861717232
940.3,0.008835304587
941.3,0.009298027544
942.4,0.01085805757
943.4,0.01168160154
944.5,0.0130405488
945.5,0.01396798784
946.6,0.01492144002
947.6,0.01563002436
948.7,0.01649855217
949.7,0.016800924